#index kx_value ky_value E0(k) Overlap_bottom Overlap_top E1(k) Overlap_bottom Overlap_top  E2(k) .....
